wavelength:nm data:water scattering
340 0.0104
345 0.0098
350 0.0092
355 0.0097
360 0.0082
365 0.0077
370 0.0073
375 0.0069
380 0.0065
385 0.0062
390 0.0059
395 0.0056
400 0.0053
405 0.0050
410 0.0048
415 0.0045
420 0.0043
425 0.0041
430 0.0039
435 0.0037
440 0.0036
445 0.0034
450 0.0033
455 0.0031
460 0.0030
465 0.0028
470 0.0026
475 0.0027
480 0.0025
485 0.0024
490 0.0023
495 0.0022
500 0.0021
505 0.0020
510 0.0019
515 0.0018
520 0.0018
525 0.0017
530 0.0017
535 0.0016
540 0.0015
545 0.0015
550 0.0014
555 0.0014
560 0.0013
565 0.0013
570 0.0012
575 0.0012
580 0.0011
585 0.0011
590 0.0011
595 0.0010
600 0.0010
605 0.0010
610 0.0009
615 0.0009
620 0.0009
625 0.0008
630 0.0008
635 0.0008
640 0.0008
645 0.0007
650 0.0007
655 0.0007
660 0.0007
665 0.0006
670 0.0006
675 0.0006
680 0.0006
685 0.0006
690 0.0006
695 0.0005
700 0.0005
705 0.0005
710 0.0005
715 0.0005
720 0.0005
725 0.0004
730 0.0005
735 0.0004
740 0.0004
745 0.0004
750 0.0004
